 =======================================================
  Optical constants for Al_2 O_3-compact. 
  Data from B. Begemann et al in ApJ (1997), 476, 199
  Range 7.8 - 200 mic, 64 entries.        [MN; May'99]                   
 =======================================================
     wavelength         n             k    
      (micron)         (-)           (-)	  
    7.80000E+00    1.34300E+00    7.80000E-02
    8.00000E+00    1.32300E+00    8.60000E-02
    8.20000E+00    1.30100E+00    9.50000E-02
    8.40000E+00    1.27700E+00    1.05000E-01
    8.60000E+00    1.25100E+00    1.16000E-01
    8.80000E+00    1.22300E+00    1.29000E-01
    9.00000E+00    1.19300E+00    1.44000E-01
    9.20000E+00    1.16000E+00    1.62000E-01
    9.40000E+00    1.12400E+00    1.83000E-01
    9.60000E+00    1.08400E+00    2.08000E-01
    9.80000E+00    1.04100E+00    2.40000E-01
    1.00000E+01    9.94000E-01    2.81000E-01
    1.02000E+01    9.44000E-01    3.34000E-01
    1.04000E+01    8.96000E-01    4.08000E-01
    1.06000E+01    8.62000E-01    5.04000E-01
    1.08000E+01    8.59000E-01    6.12000E-01
    1.10000E+01    8.86000E-01    7.12000E-01
    1.12000E+01    9.27000E-01    7.92000E-01
    1.14000E+01    9.77000E-01    8.61000E-01
    1.16000E+01    1.03600E+00    9.13000E-01
    1.18000E+01    1.09200E+00    9.46000E-01
    1.20000E+01    1.13800E+00    9.69000E-01
    1.25000E+01    1.22400E+00    1.01600E+00
    1.30000E+01    1.29400E+00    1.05900E+00
    1.35000E+01    1.35500E+00    1.09800E+00
    1.40000E+01    1.40800E+00    1.13500E+00
    1.45000E+01    1.45500E+00    1.17600E+00
    1.50000E+01    1.50500E+00    1.22700E+00
    1.55000E+01    1.56700E+00    1.27800E+00
    1.60000E+01    1.63800E+00    1.32200E+00
    1.65000E+01    1.71500E+00    1.35600E+00
    1.70000E+01    1.79500E+00    1.38200E+00
    1.75000E+01    1.87700E+00    1.39800E+00
    1.80000E+01    1.96200E+00    1.40200E+00
    1.85000E+01    2.04400E+00    1.39200E+00
    1.90000E+01    2.11800E+00    1.36900E+00
    1.95000E+01    2.18200E+00    1.33600E+00
    2.00000E+01    2.23600E+00    1.29800E+00
    2.10000E+01    2.29800E+00    1.22000E+00
    2.20000E+01    2.31800E+00    1.16500E+00
    2.30000E+01    2.32300E+00    1.14300E+00
    2.40000E+01    2.33200E+00    1.14900E+00
    2.50000E+01    2.35500E+00    1.17100E+00
    2.60000E+01    2.40000E+00    1.19700E+00
    2.70000E+01    2.45900E+00    1.21700E+00
    2.80000E+01    2.52800E+00    1.22300E+00
    2.90000E+01    2.59800E+00    1.21400E+00
    3.00000E+01    2.66400E+00    1.19300E+00
    3.20000E+01    2.77200E+00    1.12800E+00
    3.40000E+01    2.84400E+00    1.05100E+00
    3.60000E+01    2.89100E+00    9.78000E-01
    3.80000E+01    2.91900E+00    9.15000E-01
    4.00000E+01    2.93800E+00    8.61000E-01
    4.50000E+01    2.95500E+00    7.63000E-01
    5.00000E+01    2.94900E+00    6.99000E-01
    6.00000E+01    2.94100E+00    6.54000E-01
    7.00000E+01    2.94800E+00    6.72000E-01
    8.00000E+01    2.98700E+00    7.04000E-01
    9.00000E+01    3.04300E+00    7.28000E-01
    1.00000E+02    3.10300E+00    7.42000E-01
    1.25000E+02    3.25400E+00    7.55000E-01
    1.50000E+02    3.38500E+00    7.47000E-01
    1.75000E+02    3.50100E+00    7.12000E-01
    2.00000E+02    3.59900E+00    6.68000E-01
