 =====================================================
  Optical constants for Al_2 O_3-porous 
  Data from B. Begemann et al in ApJ (1997), 476, 199
  Range 7.8 - 500 mic, 68 entries.       [MN; May'99]                  
 =====================================================
     wavelength         n             k    
      (micron)         (-)           (-)	  
    7.80000E+00    1.32800E+00    6.30000E-02
    8.00000E+00    1.31200E+00    6.80000E-02
    8.20000E+00    1.29600E+00    7.50000E-02
    8.40000E+00    1.27800E+00    8.20000E-02
    8.60000E+00    1.25900E+00    9.00000E-02
    8.80000E+00    1.23900E+00    9.90000E-02
    9.00000E+00    1.21700E+00    1.10000E-01
    9.20000E+00    1.19200E+00    1.22000E-01
    9.40000E+00    1.16600E+00    1.37000E-01
    9.60000E+00    1.13600E+00    1.56000E-01
    9.80000E+00    1.10400E+00    1.78000E-01
    1.00000E+01    1.07000E+00    2.08000E-01
    1.02000E+01    1.03300E+00    2.47000E-01
    1.04000E+01    9.99000E-01    3.00000E-01
    1.06000E+01    9.76000E-01    3.68000E-01
    1.08000E+01    9.74000E-01    4.42000E-01
    1.10000E+01    9.91000E-01    5.09000E-01
    1.12000E+01    1.01600E+00    5.63000E-01
    1.14000E+01    1.04500E+00    6.12000E-01
    1.16000E+01    1.07900E+00    6.50000E-01
    1.18000E+01    1.11200E+00    6.78000E-01
    1.20000E+01    1.13900E+00    7.00000E-01
    1.25000E+01    1.19600E+00    7.51000E-01
    1.30000E+01    1.24900E+00    7.95000E-01
    1.35000E+01    1.29900E+00    8.34000E-01
    1.40000E+01    1.34500E+00    8.68000E-01
    1.45000E+01    1.38600E+00    9.01000E-01
    1.50000E+01    1.42900E+00    9.39000E-01
    1.55000E+01    1.47900E+00    9.76000E-01
    1.60000E+01    1.53500E+00    1.00700E+00
    1.65000E+01    1.59400E+00    1.03100E+00
    1.70000E+01    1.65400E+00    1.04800E+00
    1.75000E+01    1.71600E+00    1.05900E+00
    1.80000E+01    1.77800E+00    1.06000E+00
    1.85000E+01    1.83800E+00    1.05200E+00
    1.90000E+01    1.89300E+00    1.03400E+00
    1.95000E+01    1.93900E+00    1.01000E+00
    2.00000E+01    1.97600E+00    9.81000E-01
    2.10000E+01    2.01900E+00    9.27000E-01
    2.20000E+01    2.03600E+00    8.89000E-01
    2.30000E+01    2.04300E+00    8.72000E-01
    2.40000E+01    2.05300E+00    8.73000E-01
    2.50000E+01    2.07100E+00    8.86000E-01
    2.60000E+01    2.10300E+00    9.01000E-01
    2.70000E+01    2.14300E+00    9.12000E-01
    2.80000E+01    2.19000E+00    9.13000E-01
    2.90000E+01    2.23600E+00    9.06000E-01
    3.00000E+01    2.27800E+00    8.91000E-01
    3.20000E+01    2.34600E+00    8.48000E-01
    3.40000E+01    2.39100E+00    8.00000E-01
    3.60000E+01    2.41800E+00    7.58000E-01
    3.80000E+01    2.43500E+00    7.23000E-01
    4.00000E+01    2.44600E+00    6.96000E-01
    4.50000E+01    2.46300E+00    6.55000E-01
    5.00000E+01    2.47700E+00    6.36000E-01
    6.00000E+01    2.51300E+00    6.30000E-01
    7.00000E+01    2.55700E+00    6.40000E-01
    8.00000E+01    2.60600E+00    6.52000E-01
    9.00000E+01    2.65700E+00    6.62000E-01
    1.00000E+02    2.70800E+00    6.70000E-01
    1.25000E+02    2.82800E+00    6.75000E-01
    1.50000E+02    2.93100E+00    6.61000E-01
    1.75000E+02    3.01700E+00    6.39000E-01
    2.00000E+02    3.09100E+00    6.12000E-01
    2.50000E+02    3.19700E+00    5.52000E-01
    3.00000E+02    3.26100E+00    4.97000E-01
    4.00000E+02    3.34200E+00    4.11000E-01
    5.00000E+02    3.39900E+00    3.35000E-01
