 ===========================================================
  Optical constants for FeO(5.7g/ccm).
  Data from Th.Henning et al (1995) A&A Suppl.Ser.112, 143
  Range 0.2 - 500 mic,  77 entries.             [MN;May 99]
 ============================================================
     wavelength         n             k    
      (micron)         (-)           (-)	  
    2.00000E-01    1.38300E+00    1.16200E+00
    2.50000E-01    1.77300E+00    1.15900E+00
    3.00000E-01    2.00200E+00    1.04767E+00
    3.50000E-01    2.13285E+00    9.47074E-01
    4.00000E-01    2.22400E+00    8.68200E-01
    4.50000E-01    2.29133E+00    7.99979E-01
    5.00000E-01    2.34200E+00    7.42200E-01
    6.00000E-01    2.41767E+00    6.37204E-01
    7.00000E-01    2.43600E+00    5.54388E-01
    8.00000E-01    2.43900E+00    5.13200E-01
    9.00000E-01    2.44400E+00    4.95201E-01
    1.00000E+00    2.45400E+00    4.90100E-01
    1.20000E+00    2.47899E+00    5.07925E-01
    1.40000E+00    2.52099E+00    5.28256E-01
    1.60000E+00    2.58349E+00    5.34901E-01
    1.80000E+00    2.65026E+00    5.10665E-01
    2.00000E+00    2.70100E+00    4.60300E-01
    2.50000E+00    2.74500E+00    3.43000E-01
    3.00000E+00    2.74900E+00    2.70403E-01
    3.50000E+00    2.74286E+00    2.24230E-01
    4.00000E+00    2.73300E+00    1.92600E-01
    4.50000E+00    2.72111E+00    1.69779E-01
    5.00000E+00    2.70800E+00    1.52700E-01
    6.00000E+00    2.67767E+00    1.29337E-01
    7.00000E+00    2.64073E+00    1.15432E-01
    8.00000E+00    2.59702E+00    1.07902E-01
    9.00000E+00    2.54604E+00    1.05544E-01
    1.00000E+01    2.48400E+00    1.08100E-01
    1.10000E+01    2.41174E+00    1.16004E-01
    1.20000E+01    2.32614E+00    1.30371E-01
    1.30000E+01    2.22432E+00    1.53201E-01
    1.40000E+01    2.10216E+00    1.87772E-01
    1.50000E+01    1.94179E+00    2.41690E-01
    1.60000E+01    1.78686E+00    3.58396E-01
    1.70000E+01    1.62547E+00    4.24422E-01
    1.80000E+01    1.28733E+00    5.95948E-01
    1.90000E+01    1.05724E+00    1.02461E+00
    2.00000E+01    9.90049E-01    1.45543E+00
    2.10000E+01    1.00662E+00    1.87928E+00
    2.20000E+01    1.08401E+00    2.28675E+00
    2.30000E+01    1.20151E+00    2.68832E+00
    2.40000E+01    1.36213E+00    3.11057E+00
    2.50000E+01    1.60809E+00    3.55836E+00
    2.60000E+01    1.95313E+00    4.00137E+00
    2.70000E+01    2.41805E+00    4.42094E+00
    2.80000E+01    3.05475E+00    4.78515E+00
    2.90000E+01    3.85826E+00    5.00854E+00
    3.00000E+01    4.81873E+00    4.91850E+00
    3.10000E+01    5.68898E+00    4.42748E+00
    3.20000E+01    6.18477E+00    3.64377E+00
    3.30000E+01    6.31535E+00    2.87646E+00
    3.40000E+01    6.22033E+00    2.35255E+00
    3.50000E+01    6.08376E+00    1.96286E+00
    3.60000E+01    5.89729E+00    1.67867E+00
    3.80000E+01    5.65648E+00    1.32564E+00
    4.00000E+01    5.40808E+00    1.12698E+00
    4.20000E+01    5.22074E+00    9.92212E-01
    4.40000E+01    5.09613E+00    9.20967E-01
    4.60000E+01    4.97306E+00    8.76379E-01
    4.80000E+01    4.90606E+00    8.53336E-01
    5.00000E+01    4.83013E+00    8.19635E-01
    6.00000E+01    4.61774E+00    8.30186E-01
    7.00000E+01    4.54301E+00    8.74726E-01
    8.00000E+01    4.51155E+00    9.34345E-01
    9.00000E+01    4.52356E+00    9.92835E-01
    1.00000E+02    4.49310E+00    1.05923E+00
    1.20000E+02    4.53720E+00    1.24371E+00
    1.40000E+02    4.64465E+00    1.37865E+00
    1.60000E+02    4.72000E+00    1.46406E+00
    1.80000E+02    4.79047E+00    1.53929E+00
    2.00000E+02    4.84639E+00    1.61629E+00
    2.50000E+02    4.92818E+00    1.80652E+00
    3.00000E+02    5.02246E+00    2.03279E+00
    3.50000E+02    5.04835E+00    2.18398E+00
    4.00000E+02    5.06184E+00    2.47592E+00
    4.50000E+02    5.10238E+00    2.65845E+00
    5.00000E+02    5.14917E+00    2.81566E+00
