 ==============================================================
  Optical constants for glassy olivine (Mg_0.5 Fe_0.5 SiO_4)
  Data from Dorschner et al. (1995) Astron.Astrophys. 300, 503            
  Range 0.2 - 500 mic,  109 entries.              [MN; May'99]
 ==============================================================
     wavelength         n             k    
      (micron)         (-)           (-)  
    2.00000E-01    1.63900E+00    2.52700E-01
    2.20000E-01    1.64627E+00    2.96752E-01
    2.40000E-01    1.67366E+00    3.06467E-01
    2.60000E-01    1.69930E+00    2.98033E-01
    2.80000E-01    1.72027E+00    2.84053E-01
    3.00000E-01    1.73932E+00    2.67913E-01
    3.20000E-01    1.75598E+00    2.48871E-01
    3.40000E-01    1.76952E+00    2.26834E-01
    3.60000E-01    1.77788E+00    2.03944E-01
    3.80000E-01    1.78236E+00    1.82206E-01
    4.00000E-01    1.78300E+00    1.62700E-01
    4.20000E-01    1.78162E+00    1.46043E-01
    4.50000E-01    1.77690E+00    1.25545E-01
    5.00000E-01    1.76800E+00    1.00800E-01
    5.50000E-01    1.75811E+00    8.44170E-02
    6.00000E-01    1.75002E+00    7.33880E-02
    6.50000E-01    1.74332E+00    6.60470E-02
    7.00000E-01    1.73674E+00    6.15870E-02
    7.50000E-01    1.73203E+00    5.93660E-02
    8.00000E-01    1.72800E+00    5.89400E-02
    9.00000E-01    1.72423E+00    6.24330E-02
    1.00000E+00    1.72600E+00    6.86670E-02
    1.10000E+00    1.73405E+00    7.39060E-02
    1.20000E+00    1.74488E+00    7.53120E-02
    1.30000E+00    1.75640E+00    7.27200E-02
    1.40000E+00    1.76560E+00    6.73190E-02
    1.50000E+00    1.77255E+00    6.06190E-02
    1.60000E+00    1.77740E+00    5.37900E-02
    1.70000E+00    1.78088E+00    4.73000E-02
    1.80000E+00    1.78352E+00    4.13580E-02
    1.90000E+00    1.78490E+00    3.63150E-02
    2.00000E+00    1.78600E+00    3.14720E-02
    2.20000E+00    1.78454E+00    2.28070E-02
    2.40000E+00    1.77993E+00    1.64500E-02
    2.60000E+00    1.77741E+00    1.39060E-02
    2.80000E+00    1.77367E+00    1.24920E-02
    3.00000E+00    1.76980E+00    1.18190E-02
    3.50000E+00    1.75722E+00    1.02370E-02
    4.00000E+00    1.74736E+00    9.11600E-03
    4.50000E+00    1.73505E+00    8.61600E-03
    5.00000E+00    1.71327E+00    8.92500E-03
    5.50000E+00    1.69049E+00    9.60000E-03
    6.00000E+00    1.66058E+00    9.53800E-03
    6.50000E+00    1.62796E+00    9.48000E-03
    7.00000E+00    1.58174E+00    1.02480E-02
    7.50000E+00    1.52459E+00    1.17490E-02
    8.00000E+00    1.43225E+00    1.80340E-02
    8.20000E+00    1.37730E+00    2.92830E-02
    8.40000E+00    1.31056E+00    6.89070E-02
    8.60000E+00    1.23979E+00    1.30354E-01
    8.80000E+00    1.17811E+00    2.08844E-01
    9.00000E+00    1.13066E+00    3.22395E-01
    9.20000E+00    1.11797E+00    4.50726E-01
    9.40000E+00    1.14521E+00    5.78708E-01
    9.60000E+00    1.20485E+00    6.92721E-01
    9.80000E+00    1.28446E+00    7.88015E-01
    1.00000E+01    1.38578E+00    8.58723E-01
    1.02000E+01    1.49069E+00    9.00194E-01
    1.04000E+01    1.59071E+00    9.24853E-01
    1.06000E+01    1.69936E+00    9.36368E-01
    1.08000E+01    1.80980E+00    9.14062E-01
    1.10000E+01    1.90320E+00    8.73590E-01
    1.12000E+01    1.98451E+00    8.21378E-01
    1.14000E+01    2.06116E+00    7.54132E-01
    1.16000E+01    2.11992E+00    6.59036E-01
    1.18000E+01    2.15139E+00    5.55593E-01
    1.20000E+01    2.14595E+00    4.49014E-01
    1.25000E+01    2.01853E+00    2.59213E-01
    1.30000E+01    1.84399E+00    1.98182E-01
    1.35000E+01    1.70781E+00    2.24203E-01
    1.40000E+01    1.62867E+00    2.69157E-01
    1.45000E+01    1.55464E+00    3.04912E-01
    1.50000E+01    1.45256E+00    3.45071E-01
    1.55000E+01    1.35160E+00    4.57960E-01
    1.60000E+01    1.29076E+00    6.11700E-01
    1.65000E+01    1.30294E+00    7.81527E-01
    1.70000E+01    1.35643E+00    9.20307E-01
    1.75000E+01    1.43702E+00    1.03410E+00
    1.80000E+01    1.53147E+00    1.11580E+00
    1.85000E+01    1.62769E+00    1.16322E+00
    1.90000E+01    1.70799E+00    1.19249E+00
    1.95000E+01    1.78474E+00    1.21169E+00
    2.00000E+01    1.84904E+00    1.22626E+00
    2.10000E+01    1.95621E+00    1.23110E+00
    2.20000E+01    2.02547E+00    1.24423E+00
    2.30000E+01    2.09904E+00    1.27883E+00
    2.40000E+01    2.18235E+00    1.32251E+00
    2.50000E+01    2.29287E+00    1.34780E+00
    2.60000E+01    2.39621E+00    1.35215E+00
    2.70000E+01    2.49781E+00    1.34649E+00
    2.80000E+01    2.60692E+00    1.32236E+00
    2.90000E+01    2.70340E+00    1.29470E+00
    3.00000E+01    2.78852E+00    1.23395E+00
    3.20000E+01    2.89845E+00    1.10453E+00
    3.40000E+01    2.95622E+00    9.96759E-01
    3.60000E+01    2.97569E+00    9.09601E-01
    3.80000E+01    3.01692E+00    8.39224E-01
    4.00000E+01    3.02198E+00    7.69572E-01
    4.50000E+01    3.03109E+00    6.80491E-01
    5.00000E+01    3.04988E+00    6.28184E-01
    5.50000E+01    3.08129E+00    5.48553E-01
    6.00000E+01    3.09163E+00    5.00892E-01
    6.50000E+01    3.09794E+00    4.49979E-01
    7.00000E+01    3.10000E+00    4.18000E-01
    7.50000E+01    3.10000E+00    3.90000E-01
    8.00000E+01    3.10000E+00    3.66000E-01
    1.00000E+02    3.10000E+00    2.92000E-01
    2.00000E+02    3.10000E+00    1.46000E-01
    5.00000E+02    3.10000E+00    5.80000E-02

